ロケットエンジン最適化計算結果（詳細版）
============================================================

燃料: CH4, 酸化剤: N2O
計算回数: 100
パラメータ範囲:
  燃焼室圧力: 5-15 bar
  混合比: 4.0-7.0
  膨張比: 20-50
  質量流量: 0.1-0.5 kg/s

回数	Pc[bar]	MR		eps		mdot[kg/s]	Isp(vac)[s]	Isp(sl)[s]	C*[m/s]	Tc[K]		γ		Pe[bar]		Cf		推力(vac)[N]	推力(sl)[N]	At[m²]		Ae[m²]		Rt[mm]		Re[mm]
----------------------------------------------------------------------------------------------------------------------------------------------------------------------------------------------------------------------------------------------------------
1	11.80		4.11		38.68		0.23		268.76		163.57		4773.14		3674		1.200		4.287		0.885		615.05		374.32		0.000049	0.001891	3.94		24.53
2	10.42		4.19		34.69		0.24		268.78		176.21		4802.45		3743		1.200		3.849		0.879		624.17		409.20		0.000049	0.001711	3.96		23.33
3	9.14		4.13		45.23		0.37		270.67		162.65		4778.66		3685		1.200		3.240		0.895		982.28		590.28		0.000077	0.003502	4.96		33.39
4	6.63		4.09		40.54		0.38		268.54		185.97		4764.35		3648		1.200		2.390		0.888		1004.81		695.86		0.000080	0.003247	5.05		32.15
5	11.26		5.29		23.73		0.26		281.31		211.31		5092.46		4497		1.200		4.402		0.855		714.34		536.58		0.000051	0.001207	4.02		19.60
6	5.91		4.61		33.02		0.45		275.22		210.25		4939.75		4065		1.200		2.198		0.876		1204.28		920.01		0.000090	0.002983	5.36		30.81
7	12.01		5.16		24.99		0.38		280.24		205.87		5068.29		4430		1.200		4.657		0.858		1040.72		764.52		0.000075	0.001867	4.88		24.38
8	9.56		4.33		31.39		0.13		270.02		187.22		4851.95		3861		1.200		3.584		0.872		337.51		234.01		0.000026	0.000825	2.89		16.20
9	14.89		4.58		46.87		0.40		278.76		148.08		4928.76		4062		1.200		5.248		0.897		1089.11		578.56		0.000081	0.003788	5.07		34.73
10	6.73		5.26		36.28		0.48		285.62		208.73		5083.56		4448		1.200		2.467		0.881		1333.97		974.87		0.000094	0.003399	5.46		32.89
11	5.92		6.27		28.39		0.20		292.99		234.67		5190.02		4801		1.200		2.254		0.866		563.76		451.53		0.000038	0.001073	3.47		18.48
12	5.37		4.73		37.70		0.27		278.48		213.46		4970.80		4139		1.200		1.957		0.884		731.19		560.48		0.000054	0.002031	4.14		25.42
13	13.94		4.41		49.51		0.10		276.69		142.41		4877.72		3931		1.200		4.868		0.901		275.76		141.93		0.000021	0.001032	2.58		18.12
14	11.48		5.24		28.28		0.22		282.74		201.59		5083.70		4472		1.200		4.373		0.866		599.66		427.56		0.000043	0.001203	3.68		19.57
15	13.27		5.22		28.22		0.36		282.48		198.16		5080.75		4470		1.200		5.057		0.866		992.35		696.16		0.000071	0.001990	4.74		25.17
16	11.32		6.34		48.64		0.48		299.85		175.48		5211.23		4896		1.200		3.964		0.900		1423.20		832.91		0.000093	0.004517	5.44		37.92
17	5.02		6.99		28.95		0.33		297.94		247.44		5202.82		4920		1.200		1.907		0.867		973.25		808.29		0.000064	0.001853	4.51		24.29
18	10.55		4.55		42.87		0.42		277.18		167.33		4920.05		4032		1.200		3.770		0.892		1135.13		685.26		0.000085	0.003638	5.20		34.03
19	12.20		5.18		40.41		0.24		285.83		175.79		5073.18		4445		1.200		4.401		0.888		675.56		415.48		0.000048	0.001920	3.89		24.72
20	14.77		5.40		30.19		0.44		285.45		194.09		5112.24		4567		1.200		5.569		0.870		1240.41		843.43		0.000087	0.002617	5.25		28.86
21	7.99		5.77		21.50		0.17		285.29		228.46		5156.60		4680		1.200		3.166		0.849		487.56		390.45		0.000034	0.000727	3.28		15.21
22	9.26		5.75		21.11		0.27		284.86		225.24		5156.26		4685		1.200		3.680		0.848		741.14		586.03		0.000051	0.001086	4.05		18.59
23	5.37		6.93		46.07		0.20		303.16		228.80		5205.39		4920		1.200		1.897		0.896		608.99		459.62		0.000039	0.001813	3.54		24.02
24	9.92		6.23		45.38		0.47		298.13		185.99		5200.58		4849		1.200		3.512		0.895		1370.08		854.71		0.000090	0.004089	5.36		36.08
25	6.00		4.34		23.51		0.24		266.58		215.29		4855.96		3862		1.200		2.348		0.855		638.87		515.95		0.000050	0.001183	4.00		19.41
26	9.16		6.13		32.67		0.48		293.66		209.69		5191.72		4812		1.200		3.413		0.875		1371.57		979.38		0.000092	0.002997	5.40		30.89
27	7.85		4.36		27.39		0.32		268.87		200.77		4862.48		3883		1.200		3.002		0.864		847.07		632.52		0.000066	0.001810	4.59		24.00
28	6.71		5.77		32.48		0.47		290.17		219.42		5153.14		4662		1.200		2.504		0.875		1340.85		1013.92		0.000091	0.002970	5.39		30.75
29	6.92		6.78		38.03		0.34		300.14		218.91		5213.33		4930		1.200		2.521		0.884		991.44		723.13		0.000065	0.002457	4.54		27.97
30	13.38		4.35		46.27		0.40		274.97		149.15		4858.68		3883		1.200		4.723		0.897		1065.42		577.89		0.000081	0.003762	5.09		34.61
31	8.90		6.36		44.69		0.10		299.04		193.31		5206.14		4873		1.200		3.161		0.894		304.76		197.00		0.000020	0.000892	2.52		16.85
32	13.85		4.54		33.93		0.34		274.51		175.54		4917.05		4030		1.200		5.134		0.877		903.07		577.50		0.000068	0.002315	4.66		27.14
33	12.20		6.18		28.76		0.29		292.69		208.95		5201.93		4859		1.200		4.635		0.867		826.54		590.08		0.000055	0.001592	4.20		22.51
34	11.69		4.38		43.68		0.34		274.79		159.27		4869.27		3907		1.200		4.166		0.893		912.10		528.67		0.000070	0.003036	4.70		31.09
35	7.66		5.95		45.87		0.15		295.70		196.16		5173.28		4737		1.200		2.708		0.896		444.49		294.87		0.000030	0.001359	3.07		20.80
36	14.84		5.76		42.34		0.21		293.13		172.80		5163.75		4729		1.200		5.314		0.891		599.83		353.59		0.000040	0.001711	3.59		23.34
37	8.77		5.83		27.08		0.33		288.73		217.60		5164.11		4709		1.200		3.362		0.863		932.43		702.74		0.000064	0.001727	4.51		23.45
38	6.09		5.25		37.66		0.29		285.85		212.59		5080.82		4436		1.200		2.222		0.884		817.23		607.78		0.000057	0.002161	4.27		26.23
39	13.58		4.81		26.29		0.18		275.86		195.83		4991.46		4224		1.200		5.228		0.862		475.41		337.49		0.000035	0.000926	3.35		17.17
40	9.84		6.25		28.42		0.46		293.04		215.68		5202.03		4855		1.200		3.743		0.866		1312.28		965.83		0.000088	0.002495	5.29		28.18
41	14.14		6.43		35.07		0.26		297.00		194.85		5221.65		4944		1.200		5.214		0.879		757.17		496.75		0.000050	0.001746	3.98		23.57
42	8.99		4.74		28.72		0.29		275.71		200.42		4973.16		4163		1.200		3.415		0.867		793.36		576.72		0.000059	0.001695	4.33		23.23
43	14.94		6.66		46.13		0.22		301.80		172.67		5234.79		5008		1.200		5.279		0.896		639.22		365.73		0.000041	0.001903	3.62		24.61
44	8.20		6.16		41.31		0.23		296.48		200.92		5191.21		4808		1.200		2.947		0.890		667.25		452.18		0.000044	0.001826	3.75		24.11
45	8.63		6.76		48.82		0.48		302.87		191.50		5220.67		4956		1.200		3.020		0.900		1433.13		906.15		0.000092	0.004512	5.42		37.90
46	11.25		6.14		39.88		0.12		296.01		189.88		5196.69		4836		1.200		4.066		0.887		357.75		229.49		0.000024	0.000946	2.75		17.35
47	12.48		5.62		35.27		0.19		289.62		190.28		5143.20		4655		1.200		4.596		0.880		549.63		361.11		0.000038	0.001327	3.46		20.55
48	11.50		4.65		46.26		0.25		279.60		159.38		4948.77		4107		1.200		4.061		0.897		692.78		394.92		0.000051	0.002362	4.03		27.42
49	8.38		5.12		28.57		0.44		281.22		208.57		5059.22		4389		1.200		3.185		0.867		1200.70		890.51		0.000086	0.002459	5.23		27.97
50	8.42		4.10		26.06		0.13		263.60		195.85		4770.04		3664		1.200		3.245		0.861		342.92		254.78		0.000028	0.000725	2.98		15.19
51	14.57		4.70		48.21		0.12		280.97		148.01		4964.09		4154		1.200		5.110		0.899		324.08		170.72		0.000024	0.001142	2.75		19.07
52	13.29		4.13		44.18		0.13		270.69		149.62		4779.49		3690		1.200		4.728		0.894		352.39		194.78		0.000028	0.001227	2.97		19.76
53	10.11		4.24		39.76		0.32		271.23		169.32		4820.54		3786		1.200		3.655		0.887		861.51		537.80		0.000067	0.002672	4.62		29.16
54	10.87		5.21		36.00		0.44		284.95		188.23		5077.46		4452		1.200		3.991		0.881		1225.86		809.78		0.000086	0.003110	5.24		31.46
55	11.32		4.29		36.12		0.42		270.97		172.66		4836.65		3826		1.200		4.155		0.881		1119.52		713.33		0.000087	0.003147	5.27		31.65
56	9.11		4.18		25.91		0.39		264.97		195.20		4798.60		3732		1.200		3.514		0.861		1019.04		750.72		0.000082	0.002118	5.10		25.96
57	8.31		6.40		48.33		0.12		300.16		191.78		5206.37		4875		1.200		2.912		0.899		360.18		230.13		0.000024	0.001136	2.74		19.02
58	8.58		4.51		23.88		0.13		269.75		205.96		4908.06		3997		1.200		3.350		0.856		351.04		268.03		0.000027	0.000646	2.93		14.34
59	10.06		6.21		38.08		0.41		296.06		197.73		5199.37		4844		1.200		3.663		0.884		1180.20		788.22		0.000078	0.002977	4.99		30.78
60	14.79		6.21		24.24		0.32		290.85		214.52		5208.00		4887		1.200		5.761		0.857		904.91		667.42		0.000061	0.001477	4.40		21.68
61	14.22		4.85		35.93		0.34		280.00		175.68		5001.98		4254		1.200		5.223		0.881		927.62		582.00		0.000068	0.002427	4.64		27.79
62	5.46		6.64		48.71		0.12		301.87		223.30		5201.91		4873		1.200		1.911		0.900		354.13		261.96		0.000023	0.001120	2.71		18.88
63	7.72		4.52		39.43		0.28		275.77		186.51		4913.19		4007		1.200		2.795		0.887		750.88		507.85		0.000057	0.002229	4.24		26.63
64	8.97		6.58		27.44		0.19		294.99		222.44		5216.44		4925		1.200		3.432		0.864		557.31		420.25		0.000037	0.001013	3.43		17.96
65	12.87		4.54		46.67		0.31		278.08		152.75		4918.13		4031		1.200		4.536		0.897		851.49		467.73		0.000063	0.002963	4.50		30.71
66	13.58		6.87		47.72		0.38		303.53		174.03		5238.62		5038		1.200		4.772		0.899		1135.72		651.15		0.000073	0.003475	4.81		33.26
67	11.74		4.03		27.67		0.28		263.13		182.86		4739.93		3597		1.200		4.484		0.865		734.41		510.38		0.000060	0.001662	4.37		23.00
68	10.07		6.15		35.26		0.36		294.70		202.11		5195.10		4827		1.200		3.709		0.880		1036.47		710.83		0.000069	0.002434	4.69		27.84
69	7.23		4.96		37.82		0.13		282.04		198.85		5026.51		4295		1.200		2.635		0.884		355.39		250.57		0.000026	0.000967	2.85		17.54
70	8.61		5.40		37.27		0.46		287.63		197.12		5107.77		4530		1.200		3.146		0.883		1293.58		886.51		0.000090	0.003346	5.35		32.64
71	8.41		4.70		38.19		0.22		278.29		187.15		4963.76		4137		1.200		3.060		0.885		611.11		410.97		0.000045	0.001723	3.79		23.42
72	6.94		6.37		25.95		0.28		292.70		231.68		5199.80		4845		1.200		2.678		0.861		799.01		632.42		0.000054	0.001389	4.13		21.03
73	5.99		5.21		28.18		0.50		282.15		223.57		5073.30		4414		1.200		2.283		0.866		1373.98		1088.71		0.000098	0.002759	5.58		29.63
74	7.58		6.99		46.16		0.47		303.72		204.35		5219.49		4979		1.200		2.677		0.896		1398.56		940.99		0.000090	0.004152	5.35		36.36
75	5.29		6.16		20.44		0.34		287.89		246.25		5180.88		4760		1.200		2.113		0.846		973.12		832.37		0.000067	0.001360	4.60		20.80
76	8.07		4.72		48.74		0.20		281.11		173.78		4967.94		4146		1.200		2.824		0.900		543.39		335.93		0.000040	0.001934	3.55		24.81
77	12.23		5.05		20.42		0.29		276.28		212.91		5045.30		4366		1.200		4.884		0.846		776.41		598.34		0.000057	0.001160	4.25		19.21
78	7.68		4.05		48.11		0.38		269.92		166.64		4749.27		3615		1.200		2.694		0.899		1017.43		628.12		0.000081	0.003894	5.08		35.21
79	12.49		4.15		31.15		0.46		266.87		176.98		4787.56		3709		1.200		4.688		0.872		1203.23		797.94		0.000096	0.002991	5.53		30.86
80	14.59		6.74		28.66		0.21		296.80		209.48		5237.02		5022		1.200		5.547		0.867		616.58		435.17		0.000040	0.001159	3.59		19.21
81	8.51		6.76		49.74		0.21		303.08		190.90		5220.28		4955		1.200		2.971		0.901		636.91		401.17		0.000041	0.002042	3.61		25.49
82	9.89		4.91		34.75		0.30		280.35		189.45		5014.11		4274		1.200		3.651		0.879		826.04		558.21		0.000060	0.002082	4.37		25.74
83	9.61		6.99		42.99		0.10		303.01		196.86		5228.57		5012		1.200		3.433		0.892		300.34		195.12		0.000019	0.000831	2.48		16.26
84	13.83		6.15		49.76		0.22		298.45		163.90		5201.43		4860		1.200		4.826		0.901		649.54		356.71		0.000043	0.002123	3.69		26.00
85	13.69		4.68		26.21		0.20		273.77		193.79		4957.07		4133		1.200		5.272		0.861		536.70		379.91		0.000040	0.001057	3.58		18.34
86	14.06		5.95		21.42		0.20		286.99		218.80		5183.57		4795		1.200		5.577		0.849		555.28		423.35		0.000038	0.000815	3.48		16.11
87	9.54		4.70		39.30		0.12		278.57		179.89		4962.71		4138		1.200		3.455		0.886		316.96		204.68		0.000023	0.000919	2.73		17.10
88	6.56		6.76		36.18		0.21		299.40		224.01		5211.01		4919		1.200		2.407		0.881		617.74		462.18		0.000040	0.001461	3.58		21.56
89	6.33		4.87		29.21		0.37		277.82		215.08		5004.22		4231		1.200		2.400		0.868		996.88		771.77		0.000073	0.002136	4.82		26.08
90	10.44		4.68		30.02		0.46		275.34		192.78		4958.10		4129		1.200		3.941		0.870		1254.38		878.25		0.000094	0.002813	5.46		29.92
91	10.47		4.70		35.31		0.15		277.48		183.46		4963.74		4143		1.200		3.856		0.880		397.03		262.49		0.000029	0.001038	3.06		18.18
92	8.03		4.14		23.17		0.40		262.77		202.33		4783.82		3696		1.200		3.149		0.854		1041.93		802.27		0.000085	0.001959	5.19		24.97
93	12.70		6.24		38.59		0.45		296.52		189.24		5206.69		4879		1.200		4.613		0.885		1312.52		837.65		0.000087	0.003345	5.25		32.63
94	11.66		6.54		33.62		0.14		297.31		203.63		5222.59		4950		1.200		4.325		0.877		396.73		271.72		0.000026	0.000876	2.88		16.70
95	5.92		5.26		20.84		0.33		279.21		232.82		5082.16		4438		1.200		2.357		0.847		890.15		742.25		0.000064	0.001333	4.51		20.60
96	12.04		5.82		35.47		0.47		291.77		193.02		5167.59		4733		1.200		4.432		0.880		1348.37		892.00		0.000091	0.003234	5.39		32.09
97	13.81		6.61		46.19		0.47		301.40		174.67		5230.31		4986		1.200		4.876		0.897		1385.30		802.81		0.000090	0.004139	5.34		36.30
98	12.99		6.52		29.60		0.20		295.66		208.50		5224.49		4958		1.200		4.912		0.869		570.82		402.55		0.000038	0.001115	3.46		18.84
99	11.66		6.17		45.75		0.39		297.79		178.07		5200.18		4851		1.200		4.124		0.896		1143.73		683.93		0.000075	0.003446	4.90		33.12
100	5.15		4.25		32.82		0.35		268.94		212.37		4825.99		3788		1.200		1.919		0.875		928.48		733.18		0.000073	0.002394	4.82		27.61

統計情報:
真空比推力 Isp(vac): 最大=303.72s, 最小=262.77s, 平均=284.74s
海面比推力 Isp(sl): 最大=247.44s, 最小=142.41s, 平均=194.69s
燃焼室温度 Tc: 最大=5038K, 最小=3597K, 平均=4423K
比熱比 γ: 最大=1.200, 最小=1.200, 平均=1.200
推力係数 Cf: 最大=0.901, 最小=0.846, 平均=0.879
真空推力: 最大=1433.13N, 最小=275.76N, 平均=830.96N
海面推力: 最大=1088.71N, 最小=141.93N, 平均=569.02N
排気圧力: 最大=5.761bar, 最小=1.897bar, 平均=3.713bar
